File: vsm/material synthesized /x=0.00/modified.dat
temperature,moment,sus
52.2356,0.000366596,2727.8
52.2352,0.000366812,2726.19
52.2351,0.000367138,2723.77
56.2167,0.000315619,3168.38
56.2168,0.000315449,3170.08
56.2172,0.000314609,3178.54
60.2115,0.000283189,3531.21
60.2082,0.000284126,3519.57
60.2071,0.000283945,3521.8
64.2174,0.000271044,3689.43
64.2121,0.000272951,3663.66
64.208,0.000273601,3654.96
68.2248,0.000266913,3746.55
68.2217,0.000267198,3742.55
68.2199,0.000267449,3739.03
72.23,0.000261146,3829.28
72.2281,0.000260755,3835.01
72.2269,0.000260929,3832.47
76.229,0.000255277,3917.31
76.227,0.000255751,3910.05
76.226,0.000255899,3907.8
80.2548,0.000258096,3874.53
80.2494,0.000256763,3894.64
80.2418,0.000256187,3903.4
84.2834,0.000255403,3915.38
84.2714,0.000256103,3904.68
84.2602,0.000255099,3920.04
88.2774,0.000254023,3936.65
88.267,0.000255066,3920.56
88.2565,0.000255911,3907.61
92.2723,0.000252389,3962.14
92.2663,0.000252315,3963.31
92.2585,0.000250531,3991.52
96.2558,0.000250604,3990.35
96.2549,0.000250225,3996.4
96.2507,0.00024891,4017.51
100.247,0.000248821,4018.95
100.249,0.000249542,4007.34
100.247,0.000249677,4005.17
104.242,0.000250166,3997.35
104.245,0.000249289,4011.41
104.244,0.000251302,3979.28
108.232,0.000246873,4050.67
108.244,0.00024693,4049.72
108.25,0.00024731,4043.51
112.227,0.000245588,4071.87
112.242,0.000245506,4073.22
112.249,0.000246411,4058.26
116.222,0.000245801,4068.32
116.239,0.000245575,4072.07
116.247,0.000245641,4070.98
120.23,0.000244489,4090.17
120.248,0.000245176,4078.7
120.256,0.000245029,4081.15
124.228,0.00024496,4082.3
124.247,0.000244576,4088.71
124.257,0.000243995,4098.45
128.234,0.00024394,4099.37
128.254,0.000243367,4109.01
128.263,0.0002436,4105.09
132.258,0.000243873,4100.5
132.247,0.000243549,4105.95
132.233,0.000242676,4120.72
136.258,0.000242468,4124.25
136.242,0.000242341,4126.41
136.226,0.00024209,4130.69
140.268,0.00024255,4122.85
140.251,0.000242253,4127.92
140.233,0.000243302,4110.12
144.291,0.000242242,4128.11
144.272,0.000242515,4123.46
144.253,0.000241884,4134.21
148.269,0.000241617,4138.78
148.215,0.000241688,4137.57
148.169,0.000242099,4130.55
152.268,0.000241507,4140.66
152.247,0.000240976,4149.79
152.225,0.000240669,4155.08
156.225,0.000240782,4153.14
156.205,0.000240414,4159.49
156.184,0.000240679,4154.91
160.252,0.000240203,4163.15
160.194,0.000240465,4158.61
160.144,0.000240265,4162.07
164.243,0.000240191,4163.36
164.221,0.000240014,4166.43
164.198,0.000239797,4170.2
168.179,0.000239162,4181.26
168.156,0.000239625,4173.19
168.135,0.000240359,4160.44
172.101,0.000240359,4160.44
172.088,0.000240781,4153.16
172.073,0.000240648,4155.45
176.176,0.000240648,4155.44
176.152,0.000240026,4166.22
176.13,0.000239912,4168.2
180.177,0.000238498,4192.9
180.153,0.000238647,4190.29
180.13,0.000239717,4171.58
184.092,0.000239707,4171.76
184.079,0.000239876,4168.82
184.064,0.000238875,4186.3
188.173,0.000238004,4201.61
188.148,0.000238408,4194.5
188.124,0.000238845,4186.82
192.168,0.000238452,4193.72
192.142,0.000238181,4198.5
192.119,0.000238092,4200.05
196.076,0.000238465,4193.48
196.065,0.000237821,4204.84
196.05,0.000238489,4193.07
200.117,0.000237456,4211.3
200.096,0.00023767,4207.51
200.075,0.000237256,4214.86
204.114,0.000236585,4226.81
204.092,0.000237034,4218.8
204.073,0.000236666,4225.36
208.061,0.000237618,4208.43
208.049,0.000236728,4224.25
208.034,0.000237347,4213.23
212.064,0.000235743,4241.91
212.047,0.000236552,4227.4
212.031,0.000235957,4238.06
216.073,0.000237329,4213.56
216.054,0.000238097,4199.96
216.038,0.000238181,4198.49
220.044,0.000237367,4212.88
220.031,0.000237017,4219.11
220.015,0.000237591,4208.91
223.907,0.00023655,4227.44
223.908,0.0002362,4233.7
223.91,0.00023603,4236.76
227.868,0.000235824,4240.44
227.87,0.000235944,4238.29
227.873,0.000235888,4239.3
231.81,0.000235823,4240.46
231.819,0.000235556,4245.28
231.824,0.000236048,4236.42
235.779,0.000235525,4245.84
235.789,0.000235798,4240.91
235.797,0.000235793,4241.01
239.749,0.000234977,4255.73
239.763,0.000235463,4246.95
239.774,0.000234739,4260.05
243.753,0.000234657,4261.53
243.765,0.000234584,4262.86
243.775,0.000234385,4266.49
247.731,0.000233465,4283.3
247.745,0.000233309,4286.17
247.757,0.000233304,4286.25
251.724,0.000232406,4302.81
251.737,0.000233286,4286.59
251.761,0.000233605,4280.72
255.706,0.000234143,4270.9
255.721,0.000233937,4274.65
255.734,0.000233958,4274.28
259.688,0.000232685,4297.65
259.703,0.000232476,4301.51
259.717,0.000233166,4288.79
263.687,0.000232342,4304.01
263.701,0.000232563,4299.91
263.714,0.000232503,4301.02
267.671,0.000231669,4316.51
267.687,0.000232406,4302.81
267.702,0.000232826,4295.05
271.66,0.000232115,4308.2
271.675,0.000232343,4303.99
271.69,0.000232209,4306.47
275.662,0.000231202,4325.22
275.677,0.000231808,4313.91
275.706,0.00023243,4302.38
279.647,0.000230799,4332.77
279.664,0.000230698,4334.68
279.678,0.00023199,4310.54
283.635,0.000230543,4337.59
283.651,0.000229939,4348.98
283.665,0.000230185,4344.33
287.618,0.000229492,4357.44
287.66,0.000230083,4346.26
287.694,0.000229734,4352.87
291.607,0.000229314,4360.84
291.625,0.000228738,4371.81
291.642,0.000229304,4361.02
295.591,0.000228343,4379.39
295.61,0.000228512,4376.14
295.627,0.000228727,4372.02
299.576,0.000227578,4394.1
299.597,0.000226965,4405.97
299.639,0.000227824,4389.35