File: vsm/material synthesized /x=0.00/modified.csv
temperature,moment,sus
52.2356,0.000216213,4.62508e+07
52.2352,0.00021634,4.62235e+07
52.2351,0.000216532,4.61825e+07
56.2167,0.000186147,5.37209e+07
56.2168,0.000186047,5.37498e+07
56.2172,0.000185552,5.38933e+07
60.2115,0.00016702,5.98729e+07
60.2082,0.000167573,5.96755e+07
60.2071,0.000167467,5.97134e+07
64.2174,0.000159858,6.25556e+07
64.2121,0.000160982,6.21186e+07
64.208,0.000161366,6.1971e+07
68.2248,0.000157421,6.3524e+07
68.2217,0.000157589,6.34562e+07
68.2199,0.000157737,6.33965e+07
72.23,0.00015402,6.49268e+07
72.2281,0.00015379,6.50239e+07
72.2269,0.000153892,6.49808e+07
76.229,0.000150559,6.64193e+07
76.227,0.000150838,6.62963e+07
76.226,0.000150925,6.62581e+07
80.2548,0.000152221,6.56939e+07
80.2494,0.000151435,6.6035e+07
80.2418,0.000151095,6.61835e+07
84.2834,0.000150633,6.63867e+07
84.2714,0.000151046,6.62052e+07
84.2602,0.000150454,6.64657e+07
88.2774,0.000149819,6.67473e+07
88.267,0.000150434,6.64744e+07
88.2565,0.000150933,6.62548e+07
92.2723,0.000148855,6.71794e+07
92.2663,0.000148811,6.71992e+07
92.2585,0.000147759,6.76776e+07
96.2558,0.000147803,6.76578e+07
96.2549,0.000147579,6.77603e+07
96.2507,0.000146803,6.81183e+07
100.247,0.000146751,6.81427e+07
100.249,0.000147176,6.79459e+07
100.247,0.000147256,6.79091e+07
104.242,0.000147544,6.77765e+07
104.245,0.000147027,6.80149e+07
104.244,0.000148214,6.747e+07
108.232,0.000145602,6.86805e+07
108.244,0.000145636,6.86645e+07
108.25,0.00014586,6.85591e+07
112.227,0.000144844,6.90399e+07
112.242,0.000144796,6.90628e+07
112.249,0.000145329,6.88092e+07
116.222,0.00014497,6.89798e+07
116.239,0.000144837,6.90433e+07
116.247,0.000144875,6.90249e+07
120.23,0.000144196,6.93502e+07
120.248,0.000144601,6.91558e+07
120.256,0.000144514,6.91973e+07
124.228,0.000144474,6.92167e+07
124.247,0.000144247,6.93255e+07
124.257,0.000143904,6.94906e+07
128.234,0.000143872,6.95063e+07
128.254,0.000143534,6.96697e+07
128.263,0.000143672,6.96031e+07
132.258,0.000143833,6.95253e+07
132.247,0.000143641,6.96179e+07
132.233,0.000143127,6.98682e+07
136.258,0.000143004,6.9928e+07
136.242,0.000142929,6.99648e+07
136.226,0.000142781,7.00373e+07
140.268,0.000143053,6.99044e+07
140.251,0.000142877,6.99903e+07
140.233,0.000143496,6.96885e+07
144.291,0.00014287,6.99935e+07
144.272,0.000143031,6.99147e+07
144.253,0.00014266,7.00969e+07
148.269,0.000142502,7.01745e+07
148.215,0.000142544,7.01539e+07
148.169,0.000142786,7.00349e+07
152.268,0.000142437,7.02064e+07
152.247,0.000142124,7.03611e+07
152.225,0.000141943,7.04508e+07
156.225,0.000142009,7.04179e+07
156.205,0.000141793,7.05255e+07
156.184,0.000141949,7.04479e+07
160.252,0.000141668,7.05877e+07
160.194,0.000141823,7.05107e+07
160.144,0.000141705,7.05693e+07
164.243,0.000141661,7.05911e+07
164.221,0.000141556,7.06432e+07
164.198,0.000141428,7.07072e+07
168.179,0.000141054,7.08947e+07
168.156,0.000141327,7.07579e+07
168.135,0.00014176,7.05417e+07
172.101,0.00014176,7.05417e+07
172.088,0.000142009,7.04182e+07
172.073,0.00014193,7.04571e+07
176.176,0.000141931,7.04569e+07
176.152,0.000141564,7.06396e+07
176.13,0.000141496,7.06732e+07
180.177,0.000140663,7.1092e+07
180.153,0.00014075,7.10478e+07
180.13,0.000141382,7.07306e+07
184.092,0.000141375,7.07337e+07
184.079,0.000141475,7.06838e+07
184.064,0.000140885,7.09801e+07
188.173,0.000140371,7.12397e+07
188.148,0.000140609,7.11192e+07
188.124,0.000140867,7.0989e+07
192.168,0.000140635,7.11059e+07
192.142,0.000140475,7.11869e+07
192.119,0.000140423,7.12133e+07
196.076,0.000140643,7.11019e+07
196.065,0.000140263,7.12945e+07
196.05,0.000140657,7.1095e+07
200.117,0.000140048,7.14041e+07
200.096,0.000140174,7.13397e+07
200.075,0.00013993,7.14644e+07
204.114,0.000139534,7.1667e+07
204.092,0.000139799,7.15312e+07
204.073,0.000139582,7.16424e+07
208.061,0.000140144,7.13553e+07
208.049,0.000139619,7.16236e+07
208.034,0.000139984,7.14368e+07
212.064,0.000139038,7.1923e+07
212.047,0.000139515,7.16769e+07
212.031,0.000139164,7.18577e+07
216.073,0.000139973,7.14423e+07
216.054,0.000140426,7.12118e+07
216.038,0.000140475,7.11869e+07
220.044,0.000139996,7.14308e+07
220.031,0.000139789,7.15365e+07
220.015,0.000140128,7.13636e+07
223.907,0.000139513,7.16778e+07
223.908,0.000139307,7.17838e+07
223.91,0.000139207,7.18357e+07
227.868,0.000139086,7.18982e+07
227.87,0.000139156,7.18616e+07
227.873,0.000139123,7.18788e+07
231.81,0.000139085,7.18984e+07
231.819,0.000138927,7.19802e+07
231.824,0.000139218,7.18299e+07
235.779,0.000138909,7.19897e+07
235.789,0.00013907,7.19061e+07
235.797,0.000139067,7.19078e+07
239.749,0.000138586,7.21574e+07
239.763,0.000138872,7.20086e+07
239.774,0.000138445,7.22306e+07
243.753,0.000138397,7.22557e+07
243.765,0.000138354,7.22782e+07
243.775,0.000138237,7.23397e+07
247.731,0.000137694,7.26247e+07
247.745,0.000137602,7.26734e+07
247.757,0.000137599,7.26748e+07
251.724,0.00013707,7.29556e+07
251.737,0.000137588,7.26806e+07
251.761,0.000137777,7.25811e+07
255.706,0.000138094,7.24146e+07
255.721,0.000137972,7.24782e+07
255.734,0.000137985,7.24718e+07
259.688,0.000137234,7.28681e+07
259.703,0.000137111,7.29336e+07
259.717,0.000137518,7.27178e+07
263.687,0.000137032,7.29759e+07
263.701,0.000137162,7.29065e+07
263.714,0.000137127,7.29253e+07
267.671,0.000136635,7.31879e+07
267.687,0.00013707,7.29556e+07
267.702,0.000137317,7.28241e+07
271.66,0.000136898,7.3047e+07
271.675,0.000137032,7.29756e+07
271.69,0.000136953,7.30177e+07
275.662,0.00013636,7.33355e+07
275.677,0.000136717,7.31439e+07
275.706,0.000137083,7.29483e+07
279.647,0.000136122,7.34636e+07
279.664,0.000136062,7.34959e+07
279.678,0.000136824,7.30867e+07
283.635,0.000135971,7.35453e+07
283.651,0.000135614,7.37385e+07
283.665,0.00013576,7.36596e+07
287.618,0.000135351,7.3882e+07
287.66,0.000135699,7.36923e+07
287.694,0.000135493,7.38044e+07
291.607,0.000135246,7.39395e+07
291.625,0.000134906,7.41255e+07
291.642,0.00013524,7.39427e+07
295.591,0.000134673,7.4254e+07
295.61,0.000134773,7.4199e+07
295.627,0.0001349,7.4129e+07
299.576,0.000134222,7.45035e+07
299.597,0.00013386,7.47048e+07
299.639,0.000134367,7.4423e+07